
Automatic Data Collection:
Tue Feb 26 11:45:43 2019
Data points are recorded 50.000000 ms apart

time (s)	Lift (N)	Drag (N)
0.00000	 0.01185	 0.16987
0.05000	 0.00043	 0.14678
0.10000	 0.00557	 0.15521
0.15000	 0.00267	 0.17076
0.20000	 -0.00171	 0.19429
0.25000	 0.00661	 0.19284
0.30000	 0.00629	 0.17047
0.35000	 0.00837	 0.16545
0.40000	 0.00123	 0.16343
0.45000	 0.00877	 0.16479
0.50000	 0.01550	 0.17694
0.55000	 0.01454	 0.16782
0.60000	 -0.00665	 0.17019
0.65000	 0.00378	 0.18470
0.70000	 -0.01136	 0.17538
0.75000	 -0.00106	 0.16687
0.80000	 -0.00314	 0.16017
0.85000	 -0.00145	 0.17342
0.90000	 -0.00081	 0.16147
0.95000	 -0.00061	 0.15988
1.00000	 0.00374	 0.15362
1.05000	 0.00640	 0.17157
1.10000	 0.01544	 0.15682
1.15000	 0.01185	 0.15977
1.20000	 0.00602	 0.17310
1.25000	 0.00004	 0.18058
1.30000	 0.00647	 0.17065
1.35000	 0.01206	 0.16026
1.40000	 0.01185	 0.16666
1.45000	 0.01734	 0.17504
1.50000	 0.00419	 0.17428
1.55000	 0.00975	 0.17114
1.60000	 0.00450	 0.15697
1.65000	 0.00632	 0.16918
1.70000	 0.00427	 0.15815
1.75000	 -0.00023	 0.15258
1.80000	 -0.00458	 0.16508
1.85000	 0.00551	 0.19305
1.90000	 0.01720	 0.18759
1.95000	 0.00142	 0.17001
2.00000	 0.00584	 0.16819
2.05000	 0.00263	 0.17131
2.10000	 0.00533	 0.16444
2.15000	 -0.00841	 0.16433
2.20000	 0.00258	 0.16268
2.25000	 0.00537	 0.16938
2.30000	 0.00740	 0.18026
2.35000	 0.01646	 0.16326
2.40000	 -0.00502	 0.15731
2.45000	 0.00098	 0.18788
2.50000	 0.00911	 0.17547
2.55000	 0.01027	 0.17022
2.60000	 0.00216	 0.16404
2.65000	 0.00134	 0.18413
2.70000	 0.00219	 0.16952
2.75000	 0.00196	 0.17172
2.80000	 0.00779	 0.16620
2.85000	 0.01755	 0.18081
2.90000	 0.00458	 0.17250
2.95000	 0.00781	 0.15925
3.00000	 -0.00506	 0.16692
3.05000	 0.00089	 0.16675
3.10000	 0.00418	 0.16441
3.15000	 -0.00671	 0.16164
3.20000	 0.00232	 0.15754
3.25000	 0.00604	 0.17163
3.30000	 0.01672	 0.16964
3.35000	 0.00178	 0.16822
3.40000	 -0.00261	 0.16112
3.45000	 0.00303	 0.15827
3.50000	 0.01010	 0.18485
3.55000	 0.00635	 0.16701
3.60000	 -0.00080	 0.16482
3.65000	 0.00204	 0.19030
3.70000	 -0.00035	 0.17596
3.75000	 -0.00925	 0.15399
3.80000	 0.01866	 0.15350
3.85000	 0.01254	 0.16011
3.90000	 0.00844	 0.15702
3.95000	 0.01111	 0.15928
4.00000	 0.00896	 0.16773
4.05000	 0.00122	 0.17108
4.10000	 0.00725	 0.18831
4.15000	 -0.00089	 0.18421
4.20000	 0.00548	 0.17859
4.25000	 -0.00019	 0.17024
4.30000	 0.01075	 0.18390
4.35000	 -0.00385	 0.16101
4.40000	 0.01790	 0.15399
4.45000	 0.00635	 0.15469
4.50000	 0.00607	 0.17682
4.55000	 0.01679	 0.17339
4.60000	 0.01950	 0.16430
4.65000	 0.01310	 0.17264
4.70000	 0.00740	 0.17293
4.75000	 0.01151	 0.16935
4.80000	 0.00993	 0.17400
4.85000	 -0.00213	 0.17827
4.90000	 0.00553	 0.19354
4.95000	 -0.00193	 0.18133
5.00000	 -0.00357	 0.17994
5.05000	 -0.00449	 0.16277
5.10000	 -0.01204	 0.17400
5.15000	 -0.00210	 0.16248
5.20000	 0.01691	 0.15596
5.25000	 -0.00109	 0.16433
5.30000	 -0.01106	 0.19325
5.35000	 0.00142	 0.19380
5.40000	 -0.00139	 0.17665
5.45000	 -0.00478	 0.16718
5.50000	 -0.00342	 0.17547
5.55000	 -0.00860	 0.16551
5.60000	 0.00354	 0.15925
5.65000	 0.00668	 0.15951
5.70000	 0.00173	 0.16580
5.75000	 -0.00094	 0.18182
5.80000	 -0.00233	 0.17059
5.85000	 -0.00238	 0.16825
5.90000	 0.00720	 0.16502
5.95000	 0.01265	 0.16713
6.00000	 0.01203	 0.16138
6.05000	 0.00447	 0.15711
6.10000	 0.00083	 0.17506
6.15000	 0.00992	 0.16909
6.20000	 0.01586	 0.17030
6.25000	 0.01896	 0.18075
6.30000	 0.00540	 0.19856
6.35000	 -0.01277	 0.18193
6.40000	 -0.00023	 0.16127
6.45000	 0.00607	 0.15951
6.50000	 -0.00376	 0.15884
6.55000	 -0.00154	 0.16669
6.60000	 0.01471	 0.16730
6.65000	 0.01296	 0.16586
6.70000	 -0.00085	 0.16057
6.75000	 0.00742	 0.16730
6.80000	 0.01192	 0.17128
6.85000	 0.00008	 0.17013
6.90000	 -0.00863	 0.17740
6.95000	 -0.00723	 0.19515
7.00000	 0.00545	 0.18805
7.05000	 -0.00232	 0.16747
7.10000	 0.00917	 0.16190
7.15000	 0.00641	 0.17700
7.20000	 0.02276	 0.16309
7.25000	 0.01778	 0.16271
7.30000	 -0.00198	 0.16083
7.35000	 0.01448	 0.17001
7.40000	 0.02059	 0.16089
7.45000	 0.00968	 0.16069
7.50000	 0.00581	 0.17336
7.55000	 0.02307	 0.18681
7.60000	 0.00973	 0.17299
7.65000	 0.00984	 0.16692
7.70000	 0.00520	 0.15737
7.75000	 0.00483	 0.18098
7.80000	 0.00089	 0.17506
7.85000	 0.00255	 0.15168
7.90000	 -0.00602	 0.14326
7.95000	 0.00269	 0.17587
8.00000	 0.01213	 0.16828
8.05000	 0.00460	 0.15650
8.10000	 0.00520	 0.15085
8.15000	 -0.02282	 0.16967
8.20000	 0.00410	 0.15151
8.25000	 -0.00545	 0.16329
8.30000	 -0.00032	 0.16254
8.35000	 0.00607	 0.17656
8.40000	 0.00112	 0.16459
8.45000	 0.00125	 0.17391
8.50000	 0.00156	 0.18185
8.55000	 0.01308	 0.19071
8.60000	 0.00139	 0.17665
8.65000	 -0.00381	 0.14490
8.70000	 -0.00052	 0.15376
8.75000	 0.01576	 0.18595
8.80000	 0.00725	 0.16736
8.85000	 0.01578	 0.16156
8.90000	 0.00601	 0.17273
8.95000	 0.00055	 0.17801
9.00000	 0.00553	 0.18297
9.05000	 0.00468	 0.18266
9.10000	 0.00046	 0.18136
9.15000	 -0.00007	 0.17893
9.20000	 -0.00071	 0.17887
9.25000	 -0.00128	 0.16511
9.30000	 0.00272	 0.16880
9.35000	 0.00584	 0.15492
9.40000	 0.01139	 0.18768
9.45000	 0.01841	 0.18603
9.50000	 0.00657	 0.17651
9.55000	 -0.00085	 0.17483
9.60000	 -0.00325	 0.16213
9.65000	 0.00533	 0.14785
9.70000	 0.00140	 0.15599
9.75000	 -0.00050	 0.17229
9.80000	 0.00435	 0.16926
9.85000	 0.00254	 0.17301
9.90000	 0.00785	 0.17532
9.95000	 0.00188	 0.17042
