
Automatic Data Collection:
Tue Feb 26 11:32:23 2019
Data points are recorded 50.000000 ms apart

time (s)	Lift (N)	Drag (N)
0.00000	 -0.00337	 0.15474
0.05000	 0.00250	 0.14603
0.10000	 -0.00007	 0.15783
0.15000	 -0.00432	 0.13717
0.20000	 -0.00471	 0.14372
0.25000	 -0.00906	 0.14222
0.30000	 0.00089	 0.14395
0.35000	 0.00413	 0.14083
0.40000	 -0.00344	 0.15319
0.45000	 -0.00554	 0.14863
0.50000	 0.00190	 0.14626
0.55000	 -0.00875	 0.14190
0.60000	 0.00381	 0.15985
0.65000	 -0.00147	 0.15024
0.70000	 -0.00233	 0.15330
0.75000	 -0.00193	 0.14161
0.80000	 -0.01401	 0.15356
0.85000	 -0.00313	 0.15824
0.90000	 0.00351	 0.15564
0.95000	 0.01393	 0.15062
1.00000	 -0.00047	 0.15627
1.05000	 -0.00171	 0.15255
1.10000	 0.00148	 0.14966
1.15000	 -0.00640	 0.16000
1.20000	 -0.01003	 0.15399
1.25000	 -0.00147	 0.15829
1.30000	 0.00491	 0.14981
1.35000	 -0.00157	 0.14949
1.40000	 -0.00106	 0.14978
1.45000	 -0.00275	 0.16228
1.50000	 0.00619	 0.15223
1.55000	 0.00021	 0.15777
1.60000	 -0.00328	 0.14877
1.65000	 -0.01030	 0.16424
1.70000	 0.00468	 0.15085
1.75000	 0.00540	 0.15994
1.80000	 0.00359	 0.14011
1.85000	 -0.00723	 0.16522
1.90000	 -0.00573	 0.14678
1.95000	 -0.00379	 0.16421
2.00000	 0.00744	 0.15163
2.05000	 -0.00564	 0.16889
2.10000	 0.00108	 0.15145
2.15000	 0.00109	 0.16381
2.20000	 -0.00387	 0.14764
2.25000	 0.00561	 0.16580
2.30000	 -0.00506	 0.15570
2.35000	 0.00036	 0.15388
2.40000	 -0.00868	 0.16658
2.45000	 0.00133	 0.15726
2.50000	 -0.00720	 0.15486
2.55000	 0.01006	 0.14938
2.60000	 -0.00916	 0.16173
2.65000	 -0.00171	 0.15633
2.70000	 -0.00730	 0.16086
2.75000	 0.00298	 0.14811
2.80000	 -0.00513	 0.14891
2.85000	 -0.00032	 0.15904
2.90000	 -0.00429	 0.14213
2.95000	 0.00739	 0.15850
3.00000	 0.00224	 0.14914
3.05000	 0.00638	 0.16173
3.10000	 0.00123	 0.15529
3.15000	 -0.00139	 0.14585
3.20000	 -0.00827	 0.14005
3.25000	 0.00143	 0.16066
3.30000	 -0.00820	 0.14906
3.35000	 -0.00838	 0.14750
3.40000	 -0.01511	 0.13826
3.45000	 -0.00410	 0.16384
3.50000	 0.00454	 0.14251
3.55000	 -0.00480	 0.13763
3.60000	 0.00168	 0.14865
3.65000	 -0.00973	 0.14707
3.70000	 0.00481	 0.15232
3.75000	 0.00671	 0.15105
3.80000	 0.00754	 0.15838
3.85000	 0.00958	 0.15971
3.90000	 0.00319	 0.16086
3.95000	 0.00488	 0.14773
4.00000	 0.00171	 0.14655
4.05000	 0.00036	 0.15399
4.10000	 -0.00424	 0.16242
4.15000	 0.00241	 0.14917
4.20000	 -0.00660	 0.16066
4.25000	 -0.00665	 0.14637
4.30000	 -0.00742	 0.16669
4.35000	 -0.00427	 0.15171
4.40000	 -0.00299	 0.16234
4.45000	 0.00213	 0.14505
4.50000	 -0.01469	 0.16935
4.55000	 -0.00165	 0.14496
4.60000	 0.00385	 0.16306
4.65000	 -0.01634	 0.14545
4.70000	 -0.00050	 0.15769
4.75000	 -0.00544	 0.16990
4.80000	 -0.00064	 0.14715
4.85000	 -0.00539	 0.16031
4.90000	 0.00517	 0.15832
4.95000	 -0.00441	 0.15564
5.00000	 -0.00012	 0.14958
5.05000	 -0.00702	 0.15203
5.10000	 -0.00328	 0.15890
5.15000	 -0.00640	 0.15599
5.20000	 -0.00330	 0.15648
5.25000	 -0.00612	 0.15368
5.30000	 0.00329	 0.15925
5.35000	 0.00782	 0.14219
5.40000	 -0.00223	 0.13939
5.45000	 -0.00885	 0.13890
5.50000	 -0.00568	 0.15959
5.55000	 -0.00545	 0.14926
5.60000	 0.00154	 0.14958
5.65000	 0.00249	 0.14054
5.70000	 0.00314	 0.16095
5.75000	 -0.00756	 0.15171
5.80000	 -0.00620	 0.14571
5.85000	 -0.00190	 0.13997
5.90000	 0.00551	 0.15085
5.95000	 0.01401	 0.17518
6.00000	 0.00164	 0.14464
6.05000	 -0.00344	 0.16920
6.10000	 -0.00540	 0.15154
6.15000	 0.00714	 0.16476
6.20000	 0.00292	 0.15388
6.25000	 -0.00596	 0.16320
6.30000	 -0.00015	 0.15928
6.35000	 0.00714	 0.17033
6.40000	 0.00306	 0.15806
6.45000	 0.00128	 0.16643
6.50000	 0.00126	 0.15529
6.55000	 0.00058	 0.16459
6.60000	 -0.00119	 0.14606
6.65000	 -0.01224	 0.16072
6.70000	 -0.00204	 0.16098
6.75000	 -0.00765	 0.15469
6.80000	 0.00035	 0.15203
6.85000	 -0.00674	 0.15523
6.90000	 -0.00454	 0.16260
6.95000	 0.00616	 0.15613
7.00000	 -0.00303	 0.15007
7.05000	 -0.00728	 0.15007
7.10000	 -0.00626	 0.15197
7.15000	 0.00334	 0.15783
7.20000	 0.00018	 0.14949
7.25000	 -0.00356	 0.15752
7.30000	 -0.00654	 0.15096
7.35000	 -0.00499	 0.15861
7.40000	 0.00376	 0.14678
7.45000	 0.00083	 0.14990
7.50000	 -0.00040	 0.15616
7.55000	 0.00911	 0.16531
7.60000	 0.00854	 0.15653
7.65000	 0.00271	 0.14738
7.70000	 -0.00629	 0.14889
7.75000	 -0.00420	 0.15988
7.80000	 -0.00832	 0.15229
7.85000	 -0.00826	 0.15238
7.90000	 0.00561	 0.15474
7.95000	 0.00150	 0.16072
8.00000	 0.00240	 0.15284
8.05000	 0.00593	 0.15749
8.10000	 -0.00268	 0.15431
8.15000	 -0.00965	 0.16006
8.20000	 -0.00268	 0.14187
8.25000	 -0.00409	 0.15330
8.30000	 -0.00161	 0.14219
8.35000	 0.00083	 0.14378
8.40000	 0.00584	 0.15994
8.45000	 0.00069	 0.13956
8.50000	 -0.00700	 0.16450
8.55000	 -0.00254	 0.14808
8.60000	 -0.00647	 0.16819
8.65000	 0.00168	 0.14912
8.70000	 -0.01358	 0.16337
8.75000	 -0.01227	 0.14990
8.80000	 -0.00009	 0.14949
8.85000	 0.00044	 0.15919
8.90000	 -0.00945	 0.15220
8.95000	 -0.00128	 0.16046
9.00000	 -0.00629	 0.15232
9.05000	 0.00317	 0.15685
9.10000	 0.00250	 0.14975
9.15000	 0.00782	 0.15858
9.20000	 0.00450	 0.13870
9.25000	 0.00244	 0.14352
9.30000	 -0.00390	 0.13867
9.35000	 -0.00823	 0.16332
9.40000	 0.00333	 0.14219
9.45000	 0.00063	 0.14894
9.50000	 -0.00103	 0.14000
9.55000	 0.00165	 0.14288
9.60000	 0.00581	 0.15310
9.65000	 0.00035	 0.14060
9.70000	 0.00316	 0.15091
9.75000	 -0.00513	 0.14337
9.80000	 0.01387	 0.15408
9.85000	 -0.00508	 0.14782
9.90000	 -0.00941	 0.14660
9.95000	 -0.00486	 0.15434
